Black Body Radiation Experiment Thu, Mar 21, 2024 10:21 AM
Sensor Position (Degrees)	Light Intensity (Volts)
0.00000	-0.37733
0.00000	-0.40840
0.00000	-0.36027
0.01015	-0.33017
0.01015	-0.36623
0.00000	-0.35142
0.00000	-0.33404
0.00000	-0.34015
0.00000	-0.36349
0.00000	-0.37476
0.00000	-0.37476
0.00000	-0.39794
0.00000	-0.32695
0.00000	-0.32567
0.00000	-0.38458
0.00000	-0.33549
0.00000	-0.38957
0.00000	-0.35239
0.00000	-0.33983
0.00000	-0.32261
0.00000	-0.36108
0.00000	-0.37717
0.00000	-0.35367
0.00000	-0.34176
0.00000	-0.36703
0.00000	-0.38297
0.00000	-0.39762
0.00000	-0.41516
0.00000	-0.37959
0.00000	-0.33178
0.00000	-0.39134
0.00000	-0.35223
0.00000	-0.33323
0.00000	-0.33726
0.00000	-0.37138
0.00000	-0.38023
0.00000	-0.39214
0.00000	-0.40357
0.00000	-0.37106
0.01015	-0.33887
0.01015	-0.33130
0.02030	-0.34402
0.02030	-0.38265
0.02030	-0.40293
0.03046	-0.33259
0.06091	-0.37894
0.11168	-0.38731
0.16244	-0.37959
0.27411	-0.33468
0.34518	-0.39359
0.38579	-0.35512
0.55838	-0.39053
0.74112	-0.33870
0.84264	-0.37379
1.12690	-0.33033
1.30964	-0.39214
1.40102	-0.35045
1.65482	-0.33645
1.83756	-0.38377
1.92893	-0.34997
2.19289	-0.34788
2.38579	-0.41210
2.47716	-0.39762
2.72081	-0.34740
2.90355	-0.39858
2.96447	-0.34337
3.19797	-0.33050
3.36041	-0.38941
3.45178	-0.32824
3.71574	-0.35577
3.91878	-0.39536
4.04061	-0.40132
4.40609	-0.38265
4.57868	-0.32744
4.65990	-0.39424
4.90355	-0.35239
5.05584	-0.39745
5.10660	-0.31858
5.27919	-0.32824
5.45178	-0.32873
5.66497	-0.39069
5.97970	-0.37202
6.22335	-0.37106
6.33503	-0.36478
6.72081	-0.36848
6.97462	-0.34917
7.11675	-0.39665
7.57360	-0.38506
7.93909	-0.33339
8.14213	-0.36462
8.62944	-0.36140
8.98477	-0.34772
9.18782	-0.32969
9.80711	-0.31842
10.26396	-0.37894
10.52792	-0.36880
11.08629	-0.31343
11.47208	-0.35995
11.66497	-0.30925
12.29442	-0.29331
12.58883	-0.30877
12.90355	-0.30506
13.78680	-0.36800
14.27411	-0.33758
14.48731	-0.33082
14.98477	-0.30764
15.27919	-0.34048
15.41117	-0.32325
15.76650	-0.32856
16.07107	-0.31778
16.58883	-0.32325
16.98477	-0.35963
17.61421	-0.36913
18.03046	-0.34530
18.24365	-0.36059
19.00508	-0.36478
19.46193	-0.30587
19.70558	-0.33500
20.42640	-0.25018
20.92386	-0.13895
21.18782	-0.09179
21.97970	0.02136
22.43655	0.03440
22.85279	-0.00777
23.79695	-0.05300
24.28426	-0.14507
24.43655	-0.17356
25.11675	-0.28752
25.57360	-0.27480
25.77665	-0.34080
26.42640	-0.32309
26.82234	-0.38683
26.99492	-0.34611
27.59391	-0.37685
27.97970	-0.38522
28.15228	-0.39681
28.75127	-0.40582
29.20812	-0.39037
29.40102	-0.42224
30.03046	-0.41468
30.47716	-0.39391
30.87310	-0.39778
31.46193	-0.40759
31.91878	-0.41741
32.13198	-0.41918
32.80203	-0.45331
33.30964	-0.42932
33.59391	-0.45669
34.68020	-0.40470
35.28934	-0.44220
35.67513	-0.40727
36.75127	-0.40856
37.46193	-0.44719
37.82741	-0.42015
38.83249	-0.42289
39.36041	-0.45910
39.63452	-0.46506
40.29442	-0.45958
40.57868	-0.46280
40.83249	-0.44623
41.26904	-0.42353
41.55330	-0.43689
41.71574	-0.44059
42.17259	-0.44413
42.52792	-0.43882
42.68020	-0.40261
43.15736	-0.44590
43.46193	-0.43882
43.59391	-0.41629
44.03046	-0.41355
44.38579	-0.39037
44.51777	-0.44397
45.01523	-0.41242
45.36041	-0.41806
45.52284	-0.41210
46.03046	-0.44027
46.37563	-0.44413
46.55838	-0.35818
47.12690	-0.41130
47.54315	-0.41532
47.73604	-0.39810
48.30457	-0.36800
48.73096	-0.37090
48.95431	-0.40261
49.62437	-0.40373
50.11168	-0.41564
50.32487	-0.35528
50.98477	-0.37959
51.40102	-0.36398
51.61421	-0.39939
52.17259	-0.34643
52.55838	-0.38989
52.74112	-0.35754
53.30964	-0.38989
53.68528	-0.35705
53.89848	-0.37009
54.47716	-0.34643
54.81218	-0.37862
55.00508	-0.35561
55.55330	-0.36719
55.94924	-0.35351
56.15228	-0.38506
56.68020	-0.37331
57.03553	-0.38200
57.20812	-0.34611
57.63452	-0.33404
57.88832	-0.33597
58.00000	-0.34659
58.29442	-0.38796
58.48731	-0.33758
58.62944	-0.36027
59.03553	-0.35480
59.32995	-0.37653
59.48223	-0.33243
60.02030	-0.32969
60.34518	-0.36365
60.54822	-0.33114
61.13706	-0.34965
61.60406	-0.34048
61.81726	-0.37428
62.43655	-0.37315
62.86294	-0.35351
63.09645	-0.38651
63.76650	-0.39778
64.22335	-0.35158
64.49746	-0.40083
65.24873	-0.39214
65.72589	-0.40164
65.98985	-0.38538
66.62944	-0.38474
67.04569	-0.40904
67.26904	-0.38055
67.94924	-0.39166
68.42640	-0.42739
68.68020	-0.39375
69.45178	-0.38828
70.01015	-0.41838
70.33503	-0.41387
71.15736	-0.42015
71.67513	-0.42128
71.95939	-0.44252
72.68020	-0.42723
73.15736	-0.40792
73.46193	-0.42949
74.16244	-0.42530
74.67005	-0.38925
74.96447	-0.42401
75.81726	-0.40035
76.31472	-0.43303
76.61929	-0.41564
77.30964	-0.41999
77.71574	-0.42884
77.94924	-0.41001
78.57868	-0.38941
78.90355	-0.31021
79.11675	-0.32277
79.66497	-0.27126
80.05076	-0.25967
80.28426	-0.22426
80.99492	-0.30394
81.48223	-0.30748
81.73604	-0.36462
82.39594	-0.40615
82.76142	-0.38699
82.96447	-0.41677
83.46193	-0.43013
83.79695	-0.43383
84.00000	-0.44526
84.51777	-0.45572
84.87310	-0.44864
85.07614	-0.46071
85.65482	-0.45250
86.04061	-0.47874
86.27411	-0.45089
86.93401	-0.44429
87.45178	-0.47987
87.72589	-0.46651
88.52792	-0.46425
89.01523	-0.46908
89.28934	-0.46747
90.04061	-0.47938