Black Body Radiation Experiment Thu, Mar 21, 2024 10:25 AM
Sensor Position (Degrees)	Light Intensity (Volts)
0.00000	-1.04113
0.00000	-1.01039
0.00000	-1.04274
0.00000	-1.05787
0.00000	-1.05481
0.00000	-1.03115
0.01015	-1.03276
0.01015	-1.07719
0.02030	-1.05884
0.02030	-0.98286
0.13198	-1.04886
0.31472	-0.99317
0.40609	-1.01763
0.61929	-1.01940
0.67005	-1.03180
0.69036	-0.99783
0.80203	-1.02616
0.90355	-0.99333
0.96447	-1.04757
1.23858	-0.97305
1.48223	-1.03485
1.60406	-1.04049
1.90863	-1.03051
2.09137	-0.99993
2.17259	-1.03840
2.38579	-0.98641
2.53807	-1.00137
2.62944	-1.00701
2.87310	-0.99848
3.06599	-1.00492
3.16751	-1.02809
3.51269	-0.96210
3.73604	-0.99413
3.87817	-0.97466
4.38579	-1.02552
4.68020	-0.95566
4.84264	-0.97079
5.35025	-1.01506
5.62437	-1.04966
6.03046	-1.01200
6.30457	-1.04982
6.72081	-1.04403
6.99492	-1.02439
7.15736	-1.03180
7.68528	-1.03180
8.06091	-0.99848
8.29442	-1.05159
8.83249	-1.03228
9.17766	-0.99043
9.35025	-1.02697
9.83756	-0.99188
10.16244	-0.99880
10.34518	-0.96001
10.64975	-1.00749
10.95431	-0.97466
11.42132	-1.00234
11.69543	-0.97659
12.06091	-1.02053
12.32487	-0.98415
12.70051	-1.01956
12.94416	-0.97626
13.09645	-0.97739
13.52284	-0.93120
13.79695	-0.96757
13.92893	-0.95389
14.48731	-1.00202
14.75127	-0.96403
14.86294	-0.99478
15.25888	-0.96645
15.54315	-0.98995
15.68528	-0.95920
16.03046	-0.96291
16.24365	-0.97755
16.54822	-0.98286
16.77157	-0.91912
16.87310	-0.95840
17.36041	-1.00331
17.63452	-0.91204
17.76650	-0.95534
18.22335	-0.97514
18.46701	-0.89884
18.57868	-0.94600
19.02538	-0.93892
19.26904	-0.87824
19.40102	-0.88420
19.89848	-0.90576
20.19289	-0.79036
20.36548	-0.80661
20.80203	-0.71809
21.05584	-0.70907
21.14721	-0.65290
21.74619	-0.60461
22.07107	-0.59254
22.34518	-0.52944
22.90355	-0.55616
23.16751	-0.64131
23.39086	-0.66400
23.69543	-0.66931
23.93909	-0.69459
24.06091	-0.76026
24.42640	-0.79889
24.70051	-0.83897
24.81218	-0.81724
25.18782	-0.89418
25.43147	-0.91381
25.52284	-0.86182
25.83756	-0.89208
26.07107	-0.89160
26.38579	-0.95405
26.61929	-0.91413
26.73096	-0.96097
27.05584	-0.91140
27.27919	-0.94794
27.39086	-0.91124
27.69543	-0.96725
27.94924	-0.92878
28.36548	-0.96387
28.62944	-0.92830
28.76142	-0.96806
29.20812	-0.96612
29.56345	-0.97546
29.72589	-0.93538
30.20305	-0.89546
30.52792	-0.96194
31.02538	-0.94890
31.36041	-0.97626
31.83756	-0.96709
32.16244	-0.93844
32.33503	-0.97288
32.79188	-0.95309
33.07614	-0.97675
33.23858	-0.95325
33.67513	-0.91333
33.95939	-0.98367
34.36548	-0.95888
34.57868	-0.97787
34.74112	-0.94343
35.07614	-0.92894
35.29949	-0.98125
35.44162	-0.91719
35.83756	-0.92991
36.09137	-0.97964
36.22335	-0.94568
36.52792	-0.95099
36.72081	-0.96065
36.85279	-0.97514
37.15736	-0.98222
37.41117	-0.93103
37.54315	-0.96564
37.93909	-0.92975
38.18274	-0.88725
38.31472	-0.92283
38.68020	-0.89144
38.91371	-0.95614
39.04569	-0.93345
39.45178	-0.95952
39.76650	-0.90560
39.96954	-0.95470
40.31472	-0.88709
40.54822	-0.89192
40.65990	-0.90077
40.98477	-0.92943
41.21827	-0.93377
41.31980	-0.86150
41.66497	-0.94955
41.92893	-0.92605
42.05076	-0.88065
42.37563	-0.89079
42.61929	-0.88484
42.73096	-0.92733
43.04569	-0.85506
43.29949	-0.85683
43.40102	-0.93281
43.77665	-0.89466
44.04061	-0.89997
44.17259	-0.87357
44.57868	-0.93313
44.89340	-0.91381
45.01523	-0.87212
45.44162	-0.90094
45.74619	-0.87808
45.86802	-0.89128
46.29442	-0.86472
46.67005	-0.85329
46.82234	-0.91558
47.35025	-0.84412
47.70558	-0.84122
47.88832	-0.91317
48.37563	-0.85892
48.73096	-0.85619
48.91371	-0.88098
49.36041	-0.90287
49.66497	-0.91220
49.81726	-0.82657
50.19289	-0.88581
50.48731	-0.87196
50.59898	-0.87969
50.98477	-0.83382
51.23858	-0.80339
51.39086	-0.89289
51.70558	-0.83156
51.93909	-0.83446
52.04061	-0.83607
52.31472	-0.86939
52.47716	-0.86021
52.55838	-0.79776
52.80203	-0.82754
52.99492	-0.80114
53.10660	-0.87084
53.45178	-0.80339
53.68528	-0.83655
53.80711	-0.83655
54.14213	-0.86150
54.30457	-0.84734
54.42640	-0.79679
54.77157	-0.85506
54.98477	-0.80050
55.37056	-0.84621
55.63452	-0.83655
55.76650	-0.86729
56.14213	-0.82142
56.47716	-0.87003
56.85279	-0.85651
57.07614	-0.87373
57.19797	-0.80243
57.55330	-0.82818
57.79695	-0.79937
57.94924	-0.85973
58.35533	-0.86987
58.62944	-0.86279
59.07614	-0.86585
59.37056	-0.82770
59.81726	-0.84943
60.09137	-0.81579
60.22335	-0.84862
60.67005	-0.88017
61.00508	-0.86794
61.51269	-0.86907
61.85787	-0.83945
62.33503	-0.84444
62.64975	-0.80758
62.81218	-0.84895
63.21827	-0.87856
63.50254	-0.81418
63.67513	-0.86327
64.21320	-0.87132
64.54822	-0.82255
65.09645	-0.82013
65.45178	-0.87631
65.62437	-0.83752
66.15228	-0.84363
66.53807	-0.83027
66.72081	-0.85828
67.32995	-0.89128
67.68528	-0.85458
68.27411	-0.86343
68.68020	-0.82657
68.87310	-0.86890
69.42132	-0.86665
69.72589	-0.84219
69.90863	-0.88178
70.39594	-0.89595
70.72081	-0.85812
70.88325	-0.88886
71.32995	-0.91108
71.58376	-0.86440
72.00000	-0.86713
72.27411	-0.84396
72.43655	-0.86311
72.86294	-0.88420
73.15736	-0.86150
73.31980	-0.87502
73.76650	-0.88999
74.03046	-0.88210
74.18274	-0.89112
74.55838	-0.89031
74.84264	-0.89691
75.02538	-0.90496
75.51269	-0.87100
75.83756	-0.92508
76.05076	-0.88709
76.55838	-0.88677
76.90355	-0.92926
77.36041	-0.94101
77.65482	-0.89353
77.82741	-0.91526
78.35533	-0.88082
78.67005	-0.82625
79.21827	-0.86053
79.52284	-0.81563
79.90863	-0.80243
80.16244	-0.75108
80.29442	-0.78183
80.69036	-0.85233
80.98477	-0.85603
81.12690	-0.88194
81.53299	-0.87341
81.79695	-0.92701
82.14213	-0.93683
82.34518	-0.95212
82.44670	-0.91172
82.68020	-0.90625
82.86294	-0.95872
82.96447	-0.90110
83.29949	-0.91011
83.53299	-0.94182
83.65482	-0.94198
83.98985	-0.96548
84.20305	-0.94230
84.34518	-0.98673
84.56853	-0.96564
84.71066	-1.01409
85.16751	-1.00733
85.50254	-0.99027
85.69543	-1.02343
86.20305	-1.02246
86.52792	-1.00363
86.97462	-1.00218
87.25888	-0.97127
87.41117	-1.02632
87.82741	-1.03099
88.08122	-0.97964
88.22335	-1.02777
88.60914	-1.02809
88.82234	-0.99236
89.05584	-0.96629
89.12690	-0.99123
89.13706	-0.95614
89.14721	-0.96162
89.14721	-0.95920
89.14721	-0.97127
89.14721	-0.98818
89.13706	-0.96226
89.12690	-0.99445
89.11675	-1.00475
89.11675	-1.02938
89.11675	-0.98914
89.11675	-0.96806
89.11675	-0.96967
89.11675	-1.00395
89.12690	-1.03373
89.12690	-1.02021
89.11675	-1.01151
89.10660	-0.98415
89.10660	-1.01361
89.10660	-1.04355
89.10660	-1.06222
89.10660	-1.03196
89.10660	-1.02085
89.10660	-1.00942
89.10660	-1.03727
89.10660	-1.07815
89.11675	-1.05996
89.11675	-1.02246
89.11675	-1.05111
89.11675	-1.07590
89.10660	-1.08491
89.10660	-1.05192
89.10660	-1.05175
89.10660	-1.09715
89.10660	-1.06930
89.10660	-1.04017
89.10660	-1.06769
89.10660	-1.09698
89.10660	-1.07574
89.11675	-1.05224
89.11675	-1.05417
89.11675	-1.09747
89.10660	-1.08008
89.10660	-1.06849
89.09645	-1.03550
89.07614	-1.07461
89.06599	-1.10922
89.05584	-1.07332
89.04569	-1.05063
89.05584	-1.08185
89.05584	-1.05192
89.05584	-1.05127
89.04569	-1.06334
89.04569	-1.08733
89.05584	-1.08443
89.05584	-1.05594
89.06599	-1.04145
89.06599	-1.07397
89.06599	-1.09055
89.06599	-1.04982
89.06599	-1.04339
89.07614	-1.05208
89.08629	-1.09956
89.09645	-1.06785
89.09645	-1.03421
89.10660	-1.03502
89.10660	-1.04773
89.10660	-1.08089
89.10660	-1.04821
89.10660	-1.03260
89.10660	-1.03115
89.10660	-1.06351
89.10660	-1.07654
89.11675	-1.06753
89.12690	-1.04000
89.13706	-1.03582
89.13706	-1.06624
89.13706	-1.07590
89.13706	-1.04290
89.13706	-1.01425
89.13706	-1.03453
89.13706	-1.07332
89.13706	-1.06528
89.13706	-1.05852
89.13706	-1.04000
89.13706	-1.02777
89.14721	-1.04274
89.15736	-1.07316
89.16751	-1.06672
89.15736	-1.04435
89.13706	-1.07300
89.08629	-1.06898
89.07614	-1.05127
89.08629	-1.04532
89.08629	-1.02906
89.08629	-1.00878
89.07614	-1.02922
89.08629	-1.03646
89.08629	-1.04065
89.08629	-1.01490
89.08629	-0.98866
89.08629	-1.02375
89.08629	-1.02842
89.12690	-1.01940
89.24873	-1.01232
89.53299	-0.98560
90.17259	-0.98238