Black Body Radiation Experiment Thu, Mar 21, 2024 10:18 AM
Sensor Position (Degrees)	Light Intensity (Volts)
0.00000	-0.20044
0.01015	-0.17131
0.01015	-0.20269
0.01015	-0.23376
0.01015	-0.18563
0.02030	-0.21766
0.11168	-0.19111
0.32487	-0.17437
0.76142	-0.22201
1.15736	-0.18756
1.69543	-0.15714
1.92893	-0.18595
2.50761	-0.16133
2.85279	-0.21316
3.02538	-0.23247
3.49239	-0.21943
3.88832	-0.19191
4.07107	-0.22185
4.69036	-0.21782
4.95431	-0.16921
5.06599	-0.17501
5.41117	-0.14765
5.68528	-0.14636
5.80711	-0.20446
6.35533	-0.13944
6.70051	-0.19674
6.80203	-0.13783
7.39086	-0.16938
7.72589	-0.13702
7.89848	-0.11916
8.85279	-0.14217
9.29949	-0.13236
9.74619	-0.18338
10.32487	-0.17404
10.62944	-0.10660
10.78173	-0.15746
11.22843	-0.13574
11.47208	-0.10258
11.59391	-0.15811
12.20305	-0.15119
12.53807	-0.14813
12.70051	-0.08874
13.19797	-0.13010
13.62437	-0.09051
13.95939	-0.08890
14.51777	-0.08455
14.88325	-0.12350
15.05584	-0.08632
15.84772	-0.14153
16.24365	-0.07988
16.40609	-0.12125
16.82234	-0.08970
17.02538	-0.12415
17.12690	-0.12350
17.54315	-0.11417
17.88832	-0.08745
18.09137	-0.11980
18.65990	-0.09131
19.06599	-0.03079
19.26904	-0.06121
19.86802	0.03890
20.26396	0.04164
20.45685	0.11842
21.07614	0.21725
21.46193	0.29547
21.84772	0.37515
22.41624	0.44484
22.70051	0.43615
22.91371	0.39511
23.43147	0.25169
23.76650	0.17363
23.87817	0.21016
24.30457	0.11472
24.60914	0.08574
24.73096	0.00108
25.13706	0.03520
25.43147	-0.01920
25.52284	-0.03224
25.93909	-0.08053
26.24365	-0.09389
26.39594	-0.04640
26.82234	-0.07023
27.12690	-0.05075
27.29949	-0.11642
27.75635	-0.12833
28.08122	-0.11787
28.23350	-0.07393
28.67005	-0.05638
28.96447	-0.09324
29.14721	-0.09936
29.61421	-0.10837
29.97970	-0.06540
30.15228	-0.15618
30.64975	-0.15763
30.96447	-0.12592
31.12690	-0.13493
31.58376	-0.12624
31.87817	-0.14684
32.05076	-0.09228
32.53807	-0.09340
32.85279	-0.14571
33.05584	-0.09855
33.70558	-0.09678
34.09137	-0.15392
34.27411	-0.08777
34.82234	-0.06620
35.13706	-0.14394
35.28934	-0.09662
35.77665	-0.10435
36.12183	-0.15634
36.30457	-0.11111
36.87310	-0.13606
37.26904	-0.13413
37.45178	-0.14781
37.96954	-0.14684
38.31472	-0.10161
38.46701	-0.15087
38.97462	-0.09904
39.30964	-0.10934
39.52284	-0.07972
40.12183	-0.10306
40.42640	-0.11690
40.55838	-0.10660
41.02538	-0.13847
41.36041	-0.15763
41.49239	-0.09115
41.93909	-0.12270
42.26396	-0.10226
42.39594	-0.14523
42.86294	-0.08568
43.21827	-0.09147
43.38071	-0.13493
43.84772	-0.14588
44.20305	-0.14893
44.33503	-0.09743
44.76142	-0.09212
45.03553	-0.09727
45.17766	-0.13799
45.57360	-0.12624
45.84772	-0.15940
45.96954	-0.08214
46.40609	-0.15183
46.71066	-0.10708
46.84264	-0.12624
47.28934	-0.08729
47.57360	-0.11449
47.72589	-0.13445
48.12183	-0.13541
48.39594	-0.14571
48.49746	-0.08761
48.87310	-0.09630
49.13706	-0.08085
49.24873	-0.14877
49.61421	-0.13010
49.91878	-0.14201
50.08122	-0.07795
50.52792	-0.11079
50.88325	-0.07361
50.99492	-0.13203
51.48223	-0.14008
51.80711	-0.14507
51.93909	-0.09035
52.39594	-0.09727
52.63959	-0.08471
52.78173	-0.11272
53.21827	-0.14008
53.53299	-0.12254
53.67513	-0.12254
54.12183	-0.08101
54.38579	-0.07763
54.56853	-0.13203
55.10660	-0.14105
55.52284	-0.09373
55.69543	-0.13042
56.28426	-0.10821
56.76142	-0.12141
57.02538	-0.07747
57.70558	-0.06121
58.14213	-0.08648
58.35533	-0.08938
58.92386	-0.09533
59.28934	-0.06588
59.46193	-0.12254
59.93909	-0.13123
60.33503	-0.06524
60.51777	-0.12849
61.09645	-0.13863
61.48223	-0.11095
61.69543	-0.10966
62.29442	-0.11368
62.68020	-0.12382
62.89340	-0.10773
63.46193	-0.07554
63.85787	-0.14298
64.09137	-0.08503
64.73096	-0.08310
65.12690	-0.13960
65.35025	-0.10145
65.94924	-0.09727
66.35533	-0.14314
66.53807	-0.12431
67.12690	-0.10435
67.53299	-0.15264
67.77665	-0.11352
68.41624	-0.10886
68.79188	-0.14040
68.99492	-0.14266
69.55330	-0.15569
69.95939	-0.11674
70.21320	-0.15457
70.80203	-0.15312
71.19797	-0.09630
71.42132	-0.12608
72.02030	-0.11046
72.38579	-0.13525
72.57868	-0.10950
73.13706	-0.13284
73.53299	-0.17243
73.72589	-0.16680
74.32487	-0.17356
74.71066	-0.11594
74.95431	-0.16020
75.55330	-0.11417
75.93909	-0.15231
76.17259	-0.12399
76.81218	-0.13895
77.28934	-0.12302
77.51269	-0.14121
78.18274	-0.05960
78.63959	-0.04093
78.91371	0.01009
79.58376	0.01283
80.06091	0.09186
80.33503	0.07432
81.03553	0.02426
81.48223	0.00446
81.69543	-0.02419
82.35533	-0.05349
82.79188	-0.03385
82.96447	-0.08938
83.49239	-0.07538
83.80711	-0.09340
83.96954	-0.10789
84.41624	-0.10853
84.76142	-0.11578
84.93401	-0.12962
85.41117	-0.14443
85.76650	-0.12318
85.97970	-0.16680
86.55838	-0.15473
86.92386	-0.16326
87.11675	-0.15344
87.76650	-0.15360
88.17259	-0.16664
88.38579	-0.14233
89.00508	-0.14716
89.46193	-0.17871
89.66497	-0.14008
90.34518	-0.14378